Spectrum Analyzer Data File
2022-04-28 22:09:09

Frequency (Hz), dB
0.0000000,-90.309
43.0664063,-44.70517
86.1328125,-30.74084
129.1992188,-26.579357
172.2656250,-18.813133
215.3320313,-21.880753
258.3984375,-25.122879
301.4648438,-25.589088
344.5312500,-26.72036
387.5976563,-31.709957
430.6640625,-24.958046
473.7304688,-18.8647
516.7968750,-16.908386
559.8632813,-30.03001
602.9296875,-37.06838
645.9960938,-18.46112
689.0625000,-21.019966
732.1289063,-20.005333
775.1953125,-18.562279
818.2617188,-15.019264
861.3281250,-18.0951
904.3945313,-18.2014
947.4609375,-17.778915
990.5273438,-15.614746
1033.5937500,-26.927765
1076.6601563,-18.707802
1119.7265625,-24.993584
1162.7929688,-19.022278
1205.8593750,-16.582039
1248.9257813,-16.813965
1291.9921875,-27.596249
1335.0585938,-20.48668
1378.1250000,-16.927643
1421.1914063,-26.861576
1464.2578125,-15.75383
1507.3242188,-19.634323
1550.3906250,-21.2557
1593.4570313,-18.058273
1636.5234375,-19.638268
1679.5898438,-15.755455
1722.6562500,-14.486801
1765.7226563,-18.022064
1808.7890625,-26.455711
1851.8554688,-23.336205
1894.9218750,-16.614555
1937.9882813,-24.644234
1981.0546875,-32.319466
2024.1210938,-19.810677
2067.1875000,-16.192291
2110.2539063,-13.504929
2153.3203125,-13.924034
2196.3867188,-30.111488
2239.4531250,-13.627251
2282.5195313,-12.853172
2325.5859375,-16.577087
2368.6523438,-15.840965
2411.7187500,-17.605728
2454.7851563,-22.733925
2497.8515625,-15.208359
2540.9179688,-18.623589
2583.9843750,-17.327362
2627.0507813,-19.211197
2670.1171875,-30.81469
2713.1835938,-24.077652
2756.2500000,-28.33411
2799.3164063,-16.628769
2842.3828125,-18.83297
2885.4492188,-24.588814
2928.5156250,-15.486633
2971.5820313,-26.571854
3014.6484375,-23.812935
3057.7148438,-19.297058
3100.7812500,-18.090797
3143.8476563,-17.403702
3186.9140625,-20.037842
3229.9804688,-18.502808
3273.0468750,-21.630943
3316.1132813,-18.038689
3359.1796875,-15.7862625
3402.2460938,-16.8833
3445.3125000,-49.368
3488.3789063,-34.226414
3531.4453125,-19.355812
3574.5117188,-26.172096
3617.5781250,-18.847176
3660.6445313,-17.202362
3703.7109375,-26.243797
3746.7773438,-31.691078
3789.8437500,-14.90226
3832.9101563,-30.39267
3875.9765625,-38.44168
3919.0429688,-23.832565
3962.1093750,-15.486359
4005.1757813,-21.7165
4048.2421875,-16.997551
4091.3085938,-14.832336
4134.3750000,-19.407936
4177.4414063,-14.394562
4220.5078125,-18.963013
4263.5742188,-18.274078
4306.6406250,-28.829727
4349.7070313,-15.641701
4392.7734375,-22.211632
4435.8398438,-28.407837
4478.9062500,-26.997032
4521.9726563,-24.983513
4565.0390625,-32.9938
4608.1054688,-20.439812
4651.1718750,-18.010803
4694.2382813,-31.693542
4737.3046875,-25.03521
4780.3710938,-19.266045
4823.4375000,-16.573105
4866.5039063,-26.671417
4909.5703125,-15.412964
4952.6367188,-15.558662
4995.7031250,-16.035843
5038.7695313,-27.06704
5081.8359375,-16.28592
5124.9023438,-19.804955
5167.9687500,-20.19851
5211.0351563,-29.69041
5254.1015625,-19.647125
5297.1679688,-17.362495
5340.2343750,-21.429115
5383.3007813,-19.186897
5426.3671875,-12.588768
5469.4335938,-19.54155
5512.5000000,-17.016785
5555.5664063,-18.954506
5598.6328125,-19.673416
5641.6992188,-15.705452
5684.7656250,-14.073631
5727.8320313,-18.210228
5770.8984375,-15.209312
5813.9648438,-13.665459
5857.0312500,-11.2849045
5900.0976563,-34.809437
5943.1640625,-31.385387
5986.2304688,-41.663525
6029.2968750,-23.910011
6072.3632813,-14.464241
6115.4296875,-11.784798
6158.4960938,-14.426872
6201.5625000,-15.29924
6244.6289063,-14.377243
6287.6953125,-21.442581
6330.7617188,-22.804802
6373.8281250,-19.850273
6416.8945313,-16.459442
6459.9609375,-17.340378
6503.0273438,-29.090881
6546.0937500,-11.729912
6589.1601563,-12.313911
6632.2265625,-18.247795
6675.2929688,-35.259155
6718.3593750,-22.628334
6761.4257813,-11.966415
6804.4921875,-23.965996
6847.5585938,-8.195045
6890.6250000,-15.423035
6933.6914063,-20.122498
6976.7578125,-11.21283
7019.8242188,-21.793182
7062.8906250,-24.40548
7105.9570313,-8.233101
7149.0234375,-12.501007
7192.0898438,-19.702377
7235.1562500,-14.505127
7278.2226563,-14.097687
7321.2890625,-12.009163
7364.3554688,-14.27285
7407.4218750,-24.524681
7450.4882813,-20.008537
7493.5546875,-16.21717
7536.6210938,-18.734688
7579.6875000,-14.31675
7622.7539063,-10.299553
7665.8203125,-19.286621
7708.8867188,-18.976486
7751.9531250,-31.005417
7795.0195313,-20.131111
7838.0859375,-23.108803
7881.1523438,-18.361687
7924.2187500,-17.058174
7967.2851563,-17.833412
8010.3515625,-15.008759
8053.4179688,-23.982025
8096.4843750,-19.455399
8139.5507813,-19.892334
8182.6171875,-19.680077
8225.6835938,-21.519615
8268.7500000,-21.113129
8311.8164063,-21.38733
8354.8828125,-21.214035
8397.9492188,-34.87575
8441.0156250,-24.809677
8484.0820313,-36.385414
8527.1484375,-20.888435
8570.2148438,-24.43953
8613.2812500,-24.499023
8656.3476563,-23.287941
8699.4140625,-22.832848
8742.4804688,-19.733734
8785.5468750,-39.496628
8828.6132813,-28.569675
8871.6796875,-35.75729
8914.7460938,-23.114807
8957.8125000,-27.77198
9000.8789063,-24.987938
9043.9453125,-21.12764
9087.0117188,-31.897995
9130.0781250,-24.919151
9173.1445313,-27.165314
9216.2109375,-28.292217
9259.2773438,-27.682392
9302.3437500,-23.916756
9345.4101563,-31.436737
9388.4765625,-24.497498
9431.5429688,-36.8546
9474.6093750,-45.58473
9517.6757813,-32.165787
9560.7421875,-34.01668
9603.8085938,-33.890858
9646.8750000,-26.487755
9689.9414063,-25.449959
9733.0078125,-24.966415
9776.0742188,-31.968681
9819.1406250,-28.963913
9862.2070313,-40.906136
9905.2734375,-33.962315
9948.3398438,-32.26074
9991.4062500,-25.943726
10034.4726563,-46.963184
10077.5390625,-34.729736
10120.6054688,-44.05201
10163.6718750,-30.416195
10206.7382813,-36.166603
10249.8046875,-41.634735
10292.8710938,-27.668148
10335.9375000,-31.43272
10379.0039063,-41.38586
10422.0703125,-35.24867
10465.1367188,-45.196396
10508.2031250,-35.92423
10551.2695313,-38.788918
10594.3359375,-36.424625
10637.4023438,-49.455944
10680.4687500,-42.12373
10723.5351563,-36.426025
10766.6015625,-34.885727
10809.6679688,-44.30503
10852.7343750,-33.26637
10895.8007813,-39.10486
10938.8671875,-31.851307
10981.9335938,-36.099285
11025.0000000,-30.950314
11068.0664063,-32.784256
11111.1328125,-44.002502
11154.1992188,-41.13703
11197.2656250,-38.409492
11240.3320313,-30.868778
11283.3984375,-38.81288
11326.4648438,-41.971275
11369.5312500,-35.91783
11412.5976563,-30.636627
11455.6640625,-48.8159
11498.7304688,-36.62564
11541.7968750,-40.90662
11584.8632813,-35.4985
11627.9296875,-34.397724
11670.9960938,-38.039127
11714.0625000,-33.835278
11757.1289063,-40.856976
11800.1953125,-42.14327
11843.2617188,-47.48935
11886.3281250,-39.318584
11929.3945313,-40.757225
11972.4609375,-44.686832
12015.5273438,-37.438442
12058.5937500,-39.468807
12101.6601563,-33.339745
12144.7265625,-43.182987
12187.7929688,-53.816414
12230.8593750,-45.277798
12273.9257813,-48.572422
12316.9921875,-35.296867
12360.0585938,-37.411564
12403.1250000,-43.837578
12446.1914063,-37.709732
12489.2578125,-45.83478
12532.3242188,-44.239372
12575.3906250,-40.751278
12618.4570313,-37.961384
12661.5234375,-38.18188
12704.5898438,-40.94684
12747.6562500,-49.93012
12790.7226563,-47.714855
12833.7890625,-40.5812
12876.8554688,-36.099678
12919.9218750,-42.47498
12962.9882813,-39.168663
13006.0546875,-40.212658
13049.1210938,-35.951843
13092.1875000,-46.515415
13135.2539063,-45.297054
13178.3203125,-58.06563
13221.3867188,-36.34294
13264.4531250,-41.206875
13307.5195313,-41.370853
13350.5859375,-47.196083
13393.6523438,-43.44922
13436.7187500,-41.124275
13479.7851563,-41.32949
13522.8515625,-38.412807
13565.9179688,-40.086105
13608.9843750,-39.841045
13652.0507813,-44.84201
13695.1171875,-36.52442
13738.1835938,-38.89174
13781.2500000,-53.483498
13824.3164063,-55.802322
13867.3828125,-56.132275
13910.4492188,-41.529522
13953.5156250,-48.471237
13996.5820313,-36.04988
14039.6484375,-50.067257
14082.7148438,-41.41479
14125.7812500,-39.144867
14168.8476563,-46.43441
14211.9140625,-42.813686
14254.9804688,-39.283745
14298.0468750,-37.533997
14341.1132813,-46.797417
14384.1796875,-41.001534
14427.2460938,-50.945732
14470.3125000,-48.045868
14513.3789063,-38.70739
14556.4453125,-46.846764
14599.5117188,-44.09691
14642.5781250,-51.862835
14685.6445313,-49.66747
14728.7109375,-47.505386
14771.7773438,-44.42653
14814.8437500,-45.416912
14857.9101563,-49.11223
14900.9765625,-64.29031
14944.0429688,-53.316532
14987.1093750,-56.339
15030.1757813,-46.00939
15073.2421875,-58.656864
15116.3085938,-42.60888
15159.3750000,-42.83304
15202.4414063,-59.230705
15245.5078125,-56.668976
15288.5742188,-46.82092
15331.6406250,-51.219616
15374.7070313,-47.01318
15417.7734375,-50.58052
15460.8398438,-49.67068
15503.9062500,-45.998146
15546.9726563,-45.46851
15590.0390625,-55.222534
15633.1054688,-47.783653
15676.1718750,-45.57861
15719.2382813,-47.68354
15762.3046875,-50.607876
15805.3710938,-45.74076
15848.4375000,-39.652676
15891.5039063,-45.336666
15934.5703125,-46.730537
15977.6367188,-49.939262
16020.7031250,-51.681908
16063.7695313,-53.599163
16106.8359375,-44.05942
16149.9023438,-63.35344
16192.9687500,-47.757545
16236.0351563,-40.667027
16279.1015625,-43.913513
16322.1679688,-45.74451
16365.2343750,-46.144325
16408.3007813,-46.103973
16451.3671875,-51.33101
16494.4335938,-54.562107
16537.5000000,-46.55618
16580.5664063,-47.883583
16623.6328125,-56.314304
16666.6992188,-50.507195
16709.7656250,-46.767494
16752.8320313,-44.52559
16795.8984375,-56.788353
16838.9648438,-45.44812
16882.0312500,-46.536747
16925.0976563,-60.59207
16968.1640625,-57.0302
17011.2304688,-49.25495
17054.2968750,-47.802925
17097.3632813,-56.460327
17140.4296875,-45.122932
17183.4960938,-52.31595
17226.5625000,-56.33368
17269.6289063,-49.645485
17312.6953125,-43.860172
17355.7617188,-51.62646
17398.8281250,-53.929714
17441.8945313,-52.83746
17484.9609375,-45.642025
17528.0273438,-53.66662
17571.0937500,-53.62097
17614.1601563,-45.274624
17657.2265625,-49.47549
17700.2929688,-51.772186
17743.3593750,-70.7175
17786.4257813,-51.8338
17829.4921875,-46.068176
17872.5585938,-50.822628
17915.6250000,-42.653194
17958.6914063,-56.840553
18001.7578125,-54.280827
18044.8242188,-48.753902
18087.8906250,-49.16396
18130.9570313,-49.137077
18174.0234375,-48.190548
18217.0898438,-51.259827
18260.1562500,-48.624405
18303.2226563,-49.350372
18346.2890625,-45.82891
18389.3554688,-44.778614
18432.4218750,-59.343895
18475.4882813,-47.023434
18518.5546875,-51.303627
18561.6210938,-51.835464
18604.6875000,-49.15102
18647.7539063,-50.131104
18690.8203125,-53.591167
18733.8867188,-42.320198
18776.9531250,-50.38331
18820.0195313,-50.39351
18863.0859375,-55.361233
18906.1523438,-50.237053
18949.2187500,-44.356014
18992.2851563,-47.550888
19035.3515625,-44.914753
19078.4179688,-51.65075
19121.4843750,-63.769203
19164.5507813,-51.53271
19207.6171875,-61.26817
19250.6835938,-44.07322
19293.7500000,-49.598587
19336.8164063,-47.213623
19379.8828125,-50.92451
19422.9492188,-57.22881
19466.0156250,-51.657272
19509.0820313,-50.23116
19552.1484375,-57.6908
19595.2148438,-49.203968
19638.2812500,-59.178833
19681.3476563,-47.6368
19724.4140625,-54.972492
19767.4804688,-59.584213
19810.5468750,-49.54731
19853.6132813,-49.292362
19896.6796875,-63.3927
19939.7460938,-59.201283
19982.8125000,-55.750492
20025.8789063,-44.812366
20068.9453125,-54.328136
20112.0117188,-59.058655
20155.0781250,-46.24265
20198.1445313,-57.625114
20241.2109375,-51.742146
20284.2773438,-50.45912
20327.3437500,-56.402145
20370.4101563,-63.200615
20413.4765625,-63.23858
20456.5429688,-63.771923
20499.6093750,-58.13111
20542.6757813,-59.32622
20585.7421875,-54.767788
20628.8085938,-55.12672
20671.8750000,-60.963882
20714.9414063,-52.239372
20758.0078125,-58.30131
20801.0742188,-64.24224
20844.1406250,-57.44171
20887.2070313,-56.386635
20930.2734375,-78.88387
20973.3398438,-65.118744
21016.4062500,-60.285065
21059.4726563,-61.067596
21102.5390625,-67.11898
21145.6054688,-67.716225
21188.6718750,-60.862755
21231.7382813,-62.9077
21274.8046875,-58.789276
21317.8710938,-62.38829
21360.9375000,-59.662098
21404.0039063,-64.05898
21447.0703125,-62.151634
21490.1367188,-64.75978
21533.2031250,-63.87671
21576.2695313,-65.316284
21619.3359375,-63.21951
21662.4023438,-63.041264
21705.4687500,-64.89287
21748.5351563,-63.48549
21791.6015625,-62.97034
21834.6679688,-63.35106
21877.7343750,-63.833294
21920.8007813,-63.940334
21963.8671875,-62.46399
22006.9335938,-64.53465


Time (s), Raw data
0.0000000,-195.000
0.0000227,-204.000
0.0000454,-97.000
0.0000680,62.000
0.0000907,77.000
0.0001134,-10.000
0.0001361,-127.000
0.0001587,-169.000
0.0001814,-134.000
0.0002041,-88.000
0.0002268,-35.000
0.0002494,15.000
0.0002721,2.000
0.0002948,-114.000
0.0003175,-202.000
0.0003401,-279.000
0.0003628,-232.000
0.0003855,-87.000
0.0004082,24.000
0.0004308,39.000
0.0004535,48.000
0.0004762,62.000
0.0004989,18.000
0.0005215,-38.000
0.0005442,-119.000
0.0005669,-8.000
0.0005896,166.000
0.0006122,223.000
0.0006349,46.000
0.0006576,-252.000
0.0006803,-331.000
0.0007029,-219.000
0.0007256,3.000
0.0007483,127.000
0.0007710,45.000
0.0007937,-71.000
0.0008163,-80.000
0.0008390,-87.000
0.0008617,-121.000
0.0008844,-113.000
0.0009070,-67.000
0.0009297,25.000
0.0009524,83.000
0.0009751,85.000
0.0009977,12.000
0.0010204,-42.000
0.0010431,15.000
0.0010658,96.000
0.0010884,111.000
0.0011111,17.000
0.0011338,-79.000
0.0011565,-127.000
0.0011791,-108.000
0.0012018,-7.000
0.0012245,69.000
0.0012472,90.000
0.0012698,58.000
0.0012925,14.000
0.0013152,25.000
0.0013379,37.000
0.0013605,105.000
0.0013832,140.000
0.0014059,126.000
0.0014286,80.000
0.0014512,44.000
0.0014739,117.000
0.0014966,136.000
0.0015193,63.000
0.0015419,-82.000
0.0015646,-132.000
0.0015873,-49.000
0.0016100,76.000
0.0016327,76.000
0.0016553,-60.000
0.0016780,-107.000
0.0017007,-7.000
0.0017234,86.000
0.0017460,64.000
0.0017687,-67.000
0.0017914,-95.000
0.0018141,-51.000
0.0018367,-33.000
0.0018594,71.000
0.0018821,161.000
0.0019048,126.000
0.0019274,-39.000
0.0019501,-91.000
0.0019728,27.000
0.0019955,156.000
0.0020181,155.000
0.0020408,39.000
0.0020635,-146.000
0.0020862,-216.000
0.0021088,-141.000
0.0021315,-74.000
0.0021542,-22.000
0.0021769,-19.000
0.0021995,-35.000
0.0022222,15.000
0.0022449,97.000
0.0022676,61.000
0.0022903,33.000
0.0023129,66.000
0.0023356,94.000
0.0023583,98.000
0.0023810,40.000
0.0024036,16.000
0.0024263,15.000
0.0024490,24.000
0.0024717,-22.000
0.0024943,-153.000
0.0025170,-231.000
0.0025397,-182.000
0.0025624,-73.000
0.0025850,34.000
0.0026077,34.000
0.0026304,-105.000
0.0026531,-167.000
0.0026757,-32.000
0.0026984,162.000
0.0027211,221.000
0.0027438,164.000
0.0027664,8.000
0.0027891,-115.000
0.0028118,-83.000
0.0028345,94.000
0.0028571,268.000
0.0028798,187.000
0.0029025,-55.000
0.0029252,-155.000
0.0029478,-24.000
0.0029705,143.000
0.0029932,121.000
0.0030159,-11.000
0.0030386,-74.000
0.0030612,-49.000
0.0030839,19.000
0.0031066,46.000
0.0031293,67.000
0.0031519,111.000
0.0031746,34.000
0.0031973,-87.000
0.0032200,-138.000
0.0032426,-123.000
0.0032653,-60.000
0.0032880,-38.000
0.0033107,-76.000
0.0033333,-169.000
0.0033560,-141.000
0.0033787,5.000
0.0034014,85.000
0.0034240,62.000
0.0034467,8.000
0.0034694,-68.000
0.0034921,-185.000
0.0035147,-196.000
0.0035374,-120.000
0.0035601,4.000
0.0035828,75.000
0.0036054,45.000
0.0036281,19.000
0.0036508,-20.000
0.0036735,-3.000
0.0036962,31.000
0.0037188,97.000
0.0037415,92.000
0.0037642,11.000
0.0037869,-51.000
0.0038095,-99.000
0.0038322,-28.000
0.0038549,16.000
0.0038776,25.000
0.0039002,24.000
0.0039229,12.000
0.0039456,73.000
0.0039683,130.000
0.0039909,132.000
0.0040136,57.000
0.0040363,5.000
0.0040590,40.000
0.0040816,70.000
0.0041043,86.000
0.0041270,93.000
0.0041497,82.000
0.0041723,13.000
0.0041950,-16.000
0.0042177,-18.000
0.0042404,-51.000
0.0042630,-94.000
0.0042857,-146.000
0.0043084,-74.000
0.0043311,-23.000
0.0043538,4.000
0.0043764,93.000
0.0043991,43.000
0.0044218,-39.000
0.0044445,-50.000
0.0044671,32.000
0.0044898,225.000
0.0045125,215.000
0.0045352,8.000
0.0045578,-191.000
0.0045805,-236.000
0.0046032,-33.000
0.0046259,156.000
0.0046485,185.000
0.0046712,68.000
0.0046939,-109.000
0.0047166,-204.000
0.0047392,-168.000
0.0047619,-77.000
0.0047846,-47.000
0.0048073,-79.000
0.0048299,-71.000
0.0048526,10.000
0.0048753,155.000
0.0048980,219.000
0.0049206,106.000
0.0049433,-41.000
0.0049660,-176.000
0.0049887,-196.000
0.0050114,-87.000
0.0050340,78.000
0.0050567,127.000
0.0050794,35.000
0.0051021,-11.000
0.0051247,-56.000
0.0051474,-2.000
0.0051701,111.000
0.0051928,167.000
0.0052154,170.000
0.0052381,36.000
0.0052608,-99.000
0.0052835,-196.000
0.0053061,-148.000
0.0053288,92.000
0.0053515,230.000
0.0053742,108.000
0.0053968,-63.000
0.0054195,-90.000
0.0054422,10.000
0.0054649,136.000
0.0054875,151.000
0.0055102,75.000
0.0055329,-40.000
0.0055556,-119.000
0.0055782,-56.000
0.0056009,63.000
0.0056236,84.000
0.0056463,3.000
0.0056690,-121.000
0.0056916,-189.000
0.0057143,-121.000
0.0057370,21.000
0.0057597,157.000
0.0057823,168.000
0.0058050,12.000
0.0058277,-139.000
0.0058504,-152.000
0.0058730,-63.000
0.0058957,43.000
0.0059184,74.000
0.0059411,38.000
0.0059637,-48.000
0.0059864,-196.000
0.0060091,-256.000
0.0060318,-177.000
0.0060544,-34.000
0.0060771,73.000
0.0060998,86.000
0.0061225,0.000
0.0061451,-66.000
0.0061678,-58.000
0.0061905,-73.000
0.0062132,-57.000
0.0062358,-43.000
0.0062585,-68.000
0.0062812,-111.000
0.0063039,-180.000
0.0063266,-195.000
0.0063492,-139.000
0.0063719,-127.000
0.0063946,-196.000
0.0064173,-226.000
0.0064399,-193.000
0.0064626,-131.000
0.0064853,-68.000
0.0065080,-30.000
0.0065306,25.000
0.0065533,-6.000
0.0065760,-96.000
0.0065987,-193.000
0.0066213,-235.000
0.0066440,-149.000
0.0066667,-31.000
0.0066894,-1.000
0.0067120,-74.000
0.0067347,-178.000
0.0067574,-185.000
0.0067801,-56.000
0.0068027,16.000
0.0068254,-17.000
0.0068481,-115.000
0.0068708,-179.000
0.0068934,-165.000
0.0069161,-112.000
0.0069388,-60.000
0.0069615,-56.000
0.0069841,-49.000
0.0070068,-59.000
0.0070295,-71.000
0.0070522,-31.000
0.0070749,-21.000
0.0070975,-66.000
0.0071202,-106.000
0.0071429,-87.000
0.0071656,-60.000
0.0071882,-36.000
0.0072109,13.000
0.0072336,18.000
0.0072563,-42.000
0.0072789,-171.000
0.0073016,-209.000
0.0073243,-174.000
0.0073470,-156.000
0.0073696,-119.000
0.0073923,-145.000
0.0074150,-219.000
0.0074377,-308.000
0.0074603,-278.000
0.0074830,-93.000
0.0075057,73.000
0.0075284,74.000
0.0075510,-106.000
0.0075737,-307.000
0.0075964,-291.000
0.0076191,-121.000
0.0076417,1.000
0.0076644,66.000
0.0076871,-41.000
0.0077098,-205.000
0.0077325,-231.000
0.0077551,-119.000
0.0077778,-37.000
0.0078005,-81.000
0.0078232,-93.000
0.0078458,-79.000
0.0078685,-8.000
0.0078912,117.000
0.0079139,200.000
0.0079365,190.000
0.0079592,88.000
0.0079819,-34.000
0.0080046,-82.000
0.0080272,-73.000
0.0080499,-45.000
0.0080726,40.000
0.0080953,54.000
0.0081179,-42.000
0.0081406,-91.000
0.0081633,-88.000
0.0081860,-60.000
0.0082086,-83.000
0.0082313,-172.000
0.0082540,-258.000
0.0082767,-311.000
0.0082993,-196.000
0.0083220,-101.000
0.0083447,-14.000
0.0083674,44.000
0.0083901,39.000
0.0084127,61.000
0.0084354,55.000
0.0084581,104.000
0.0084808,76.000
0.0085034,20.000
0.0085261,-39.000
0.0085488,-31.000
0.0085715,33.000
0.0085941,48.000
0.0086168,-43.000
0.0086395,-203.000
0.0086622,-204.000
0.0086848,-111.000
0.0087075,2.000
0.0087302,72.000
0.0087529,47.000
0.0087755,-62.000
0.0087982,-95.000
0.0088209,-46.000
0.0088436,62.000
0.0088662,187.000
0.0088889,164.000
0.0089116,33.000
0.0089343,-90.000
0.0089569,-132.000
0.0089796,-57.000
0.0090023,122.000
0.0090250,185.000
0.0090477,96.000
0.0090703,21.000
0.0090930,-26.000
0.0091157,17.000
0.0091384,71.000
0.0091610,44.000
0.0091837,43.000
0.0092064,108.000
0.0092291,173.000
0.0092517,111.000
0.0092744,-4.000
0.0092971,-56.000
0.0093198,-18.000
0.0093424,120.000
0.0093651,240.000
0.0093878,208.000
0.0094105,55.000
0.0094331,-26.000
0.0094558,19.000
0.0094785,51.000
0.0095012,-23.000
0.0095238,-138.000
0.0095465,-189.000
