Spectrum Analyzer Data File
2022-04-28 22:10:08

Frequency (Hz), dB
0.0000000,-90.309
43.0664063,-73.43592
86.1328125,-44.45926
129.1992188,-33.112926
172.2656250,-32.300922
215.3320313,-18.216347
258.3984375,-31.091358
301.4648438,-20.13205
344.5312500,-19.465271
387.5976563,-20.302635
430.6640625,-19.964455
473.7304688,-23.998161
516.7968750,-32.418297
559.8632813,-17.997826
602.9296875,-17.033867
645.9960938,-24.19989
689.0625000,-27.374142
732.1289063,-32.011944
775.1953125,-27.36605
818.2617188,-19.734612
861.3281250,-21.067291
904.3945313,-17.115883
947.4609375,-14.263405
990.5273438,-22.03215
1033.5937500,-21.217506
1076.6601563,-21.508469
1119.7265625,-14.674858
1162.7929688,-20.520203
1205.8593750,-19.987984
1248.9257813,-24.590187
1291.9921875,-27.757938
1335.0585938,-27.3294
1378.1250000,-35.3269
1421.1914063,-16.874
1464.2578125,-21.936317
1507.3242188,-14.308357
1550.3906250,-21.713737
1593.4570313,-22.087349
1636.5234375,-18.120796
1679.5898438,-18.665344
1722.6562500,-18.66298
1765.7226563,-14.477776
1808.7890625,-16.554665
1851.8554688,-19.845367
1894.9218750,-19.388382
1937.9882813,-12.831848
1981.0546875,-17.88575
2024.1210938,-15.828278
2067.1875000,-13.217148
2110.2539063,-13.239349
2153.3203125,-17.330124
2196.3867188,-18.396896
2239.4531250,-14.963745
2282.5195313,-17.240494
2325.5859375,-24.108398
2368.6523438,-9.259544
2411.7187500,-19.148956
2454.7851563,-9.055809
2497.8515625,-7.7149353
2540.9179688,-17.472946
2583.9843750,-31.253593
2627.0507813,-12.752747
2670.1171875,-16.080841
2713.1835938,-20.151482
2756.2500000,-32.12268
2799.3164063,-25.274666
2842.3828125,-12.581169
2885.4492188,-18.29065
2928.5156250,-15.3385315
2971.5820313,-17.92514
3014.6484375,-14.904465
3057.7148438,-15.127579
3100.7812500,-13.193222
3143.8476563,-16.116661
3186.9140625,-20.95839
3229.9804688,-20.29029
3273.0468750,-16.712517
3316.1132813,-17.304344
3359.1796875,-28.310966
3402.2460938,-21.250076
3445.3125000,-16.80613
3488.3789063,-42.041588
3531.4453125,-17.506363
3574.5117188,-21.3032
3617.5781250,-20.476189
3660.6445313,-22.52987
3703.7109375,-23.702942
3746.7773438,-29.889725
3789.8437500,-35.895817
3832.9101563,-22.492485
3875.9765625,-22.212639
3919.0429688,-15.478706
3962.1093750,-17.742676
4005.1757813,-23.078041
4048.2421875,-22.621933
4091.3085938,-27.878681
4134.3750000,-15.323959
4177.4414063,-20.613129
4220.5078125,-22.249084
4263.5742188,-18.029251
4306.6406250,-16.412613
4349.7070313,-33.82635
4392.7734375,-14.2139435
4435.8398438,-15.891838
4478.9062500,-21.919151
4521.9726563,-21.732117
4565.0390625,-29.340858
4608.1054688,-21.879387
4651.1718750,-20.898544
4694.2382813,-17.72258
4737.3046875,-36.071934
4780.3710938,-23.770035
4823.4375000,-18.934326
4866.5039063,-21.558556
4909.5703125,-21.828957
4952.6367188,-28.662823
4995.7031250,-17.59835
5038.7695313,-31.477291
5081.8359375,-21.865646
5124.9023438,-14.197891
5167.9687500,-23.02185
5211.0351563,-21.015434
5254.1015625,-14.737167
5297.1679688,-15.225357
5340.2343750,-24.077103
5383.3007813,-28.304596
5426.3671875,-26.772652
5469.4335938,-19.24739
5512.5000000,-21.425568
5555.5664063,-11.772995
5598.6328125,-15.334053
5641.6992188,-21.148354
5684.7656250,-20.32508
5727.8320313,-18.047745
5770.8984375,-15.778259
5813.9648438,-26.583618
5857.0312500,-31.26543
5900.0976563,-24.315071
5943.1640625,-19.529808
5986.2304688,-20.421127
6029.2968750,-25.759659
6072.3632813,-23.248878
6115.4296875,-21.386345
6158.4960938,-18.862236
6201.5625000,-13.586487
6244.6289063,-19.495102
6287.6953125,-16.273369
6330.7617188,-22.31382
6373.8281250,-13.8845825
6416.8945313,-14.980339
6459.9609375,-21.8228
6503.0273438,-15.674889
6546.0937500,-24.428612
6589.1601563,-21.214066
6632.2265625,-17.41272
6675.2929688,-16.5428
6718.3593750,-9.730835
6761.4257813,-13.997025
6804.4921875,-24.270844
6847.5585938,-11.104088
6890.6250000,-12.121994
6933.6914063,-11.215263
6976.7578125,-24.76226
7019.8242188,-12.794022
7062.8906250,-15.774994
7105.9570313,-12.466415
7149.0234375,-26.600998
7192.0898438,-10.741936
7235.1562500,-17.124237
7278.2226563,-13.689056
7321.2890625,-12.647072
7364.3554688,-11.98101
7407.4218750,-7.636017
7450.4882813,-17.119637
7493.5546875,-12.154366
7536.6210938,-9.64447
7579.6875000,-25.797157
7622.7539063,-11.385597
7665.8203125,-21.60331
7708.8867188,-12.346024
7751.9531250,-17.28453
7795.0195313,-13.421249
7838.0859375,-19.855354
7881.1523438,-18.003273
7924.2187500,-26.11467
7967.2851563,-19.979523
8010.3515625,-27.667042
8053.4179688,-12.685127
8096.4843750,-27.047634
8139.5507813,-18.160591
8182.6171875,-18.361336
8225.6835938,-19.363297
8268.7500000,-31.06351
8311.8164063,-17.690628
8354.8828125,-19.971375
8397.9492188,-27.36005
8441.0156250,-33.09975
8484.0820313,-21.386017
8527.1484375,-23.342384
8570.2148438,-20.231895
8613.2812500,-32.86749
8656.3476563,-24.52163
8699.4140625,-21.775475
8742.4804688,-24.431183
8785.5468750,-23.961403
8828.6132813,-25.22934
8871.6796875,-22.475555
8914.7460938,-23.066948
8957.8125000,-27.832802
9000.8789063,-24.128242
9043.9453125,-33.15286
9087.0117188,-26.274864
9130.0781250,-32.72451
9173.1445313,-29.907692
9216.2109375,-31.195995
9259.2773438,-30.40054
9302.3437500,-40.51512
9345.4101563,-36.837696
9388.4765625,-33.929745
9431.5429688,-34.3077
9474.6093750,-48.451244
9517.6757813,-49.195312
9560.7421875,-28.90907
9603.8085938,-28.764057
9646.8750000,-25.519974
9689.9414063,-38.420418
9733.0078125,-30.122776
9776.0742188,-36.819683
9819.1406250,-46.27534
9862.2070313,-41.90236
9905.2734375,-47.20693
9948.3398438,-31.75172
9991.4062500,-39.448143
10034.4726563,-34.770283
10077.5390625,-37.262352
10120.6054688,-39.810196
10163.6718750,-42.870686
10206.7382813,-31.095066
10249.8046875,-34.427338
10292.8710938,-36.15965
10335.9375000,-47.917778
10379.0039063,-36.313984
10422.0703125,-30.859543
10465.1367188,-37.69671
10508.2031250,-36.206768
10551.2695313,-37.353943
10594.3359375,-32.03611
10637.4023438,-38.800022
10680.4687500,-41.73484
10723.5351563,-39.96376
10766.6015625,-41.62756
10809.6679688,-37.88873
10852.7343750,-39.507927
10895.8007813,-35.704613
10938.8671875,-38.24247
10981.9335938,-38.259327
11025.0000000,-36.59842
11068.0664063,-39.099358
11111.1328125,-47.409782
11154.1992188,-37.619476
11197.2656250,-38.110966
11240.3320313,-43.31807
11283.3984375,-53.53146
11326.4648438,-46.939034
11369.5312500,-37.436516
11412.5976563,-43.21142
11455.6640625,-33.390373
11498.7304688,-33.887783
11541.7968750,-39.37027
11584.8632813,-36.473984
11627.9296875,-43.72109
11670.9960938,-59.763596
11714.0625000,-33.68156
11757.1289063,-39.12989
11800.1953125,-39.25052
11843.2617188,-39.872993
11886.3281250,-53.674015
11929.3945313,-44.116962
11972.4609375,-38.076027
12015.5273438,-37.401268
12058.5937500,-49.719486
12101.6601563,-37.5083
12144.7265625,-40.87253
12187.7929688,-45.164074
12230.8593750,-57.280674
12273.9257813,-51.192413
12316.9921875,-45.955566
12360.0585938,-41.620064
12403.1250000,-43.92349
12446.1914063,-40.11647
12489.2578125,-46.854042
12532.3242188,-34.82763
12575.3906250,-42.356487
12618.4570313,-37.054752
12661.5234375,-40.966843
12704.5898438,-40.751347
12747.6562500,-46.888733
12790.7226563,-38.46447
12833.7890625,-47.348213
12876.8554688,-51.806732
12919.9218750,-44.78121
12962.9882813,-41.649326
13006.0546875,-37.26963
13049.1210938,-43.282875
13092.1875000,-38.998592
13135.2539063,-42.11942
13178.3203125,-56.321915
13221.3867188,-59.5746
13264.4531250,-42.104465
13307.5195313,-43.339268
13350.5859375,-44.46718
13393.6523438,-51.23638
13436.7187500,-42.163403
13479.7851563,-39.527935
13522.8515625,-44.542427
13565.9179688,-47.999077
13608.9843750,-53.54598
13652.0507813,-46.575237
13695.1171875,-39.56087
13738.1835938,-45.554127
13781.2500000,-45.645016
13824.3164063,-50.50439
13867.3828125,-46.886265
13910.4492188,-49.459385
13953.5156250,-44.06278
13996.5820313,-42.700233
14039.6484375,-52.415863
14082.7148438,-43.27711
14125.7812500,-50.25853
14168.8476563,-36.061214
14211.9140625,-43.154556
14254.9804688,-41.416924
14298.0468750,-41.787178
14341.1132813,-53.741642
14384.1796875,-46.91768
14427.2460938,-41.54241
14470.3125000,-43.81967
14513.3789063,-41.86899
14556.4453125,-44.4065
14599.5117188,-50.149487
14642.5781250,-46.68836
14685.6445313,-47.31979
14728.7109375,-49.930183
14771.7773438,-41.669224
14814.8437500,-47.898113
14857.9101563,-51.993843
14900.9765625,-43.316372
14944.0429688,-54.868217
14987.1093750,-49.874832
15030.1757813,-50.05241
15073.2421875,-48.49601
15116.3085938,-44.2088
15159.3750000,-46.39505
15202.4414063,-49.55949
15245.5078125,-53.97854
15288.5742188,-48.602207
15331.6406250,-48.72937
15374.7070313,-52.65845
15417.7734375,-42.60349
15460.8398438,-49.634125
15503.9062500,-43.728413
15546.9726563,-54.783085
15590.0390625,-53.191444
15633.1054688,-42.93605
15676.1718750,-43.49871
15719.2382813,-49.529285
15762.3046875,-47.252148
15805.3710938,-42.539104
15848.4375000,-52.3642
15891.5039063,-52.466667
15934.5703125,-51.84736
15977.6367188,-50.798016
16020.7031250,-44.085022
16063.7695313,-57.576763
16106.8359375,-45.406837
16149.9023438,-51.146034
16192.9687500,-43.89199
16236.0351563,-51.978474
16279.1015625,-49.7292
16322.1679688,-42.93938
16365.2343750,-54.618744
16408.3007813,-43.39031
16451.3671875,-48.520123
16494.4335938,-45.121727
16537.5000000,-41.748936
16580.5664063,-56.84892
16623.6328125,-42.125298
16666.6992188,-44.389656
16709.7656250,-48.865387
16752.8320313,-58.859123
16795.8984375,-51.992615
16838.9648438,-55.24361
16882.0312500,-51.765953
16925.0976563,-48.143314
16968.1640625,-45.4455
17011.2304688,-53.50019
17054.2968750,-47.732525
17097.3632813,-58.621166
17140.4296875,-72.515976
17183.4960938,-49.213177
17226.5625000,-48.409393
17269.6289063,-47.336407
17312.6953125,-48.690823
17355.7617188,-66.37238
17398.8281250,-63.558327
17441.8945313,-51.29262
17484.9609375,-48.795963
17528.0273438,-46.742973
17571.0937500,-49.775677
17614.1601563,-47.893444
17657.2265625,-57.874496
17700.2929688,-47.865067
17743.3593750,-56.258575
17786.4257813,-48.198032
17829.4921875,-52.078915
17872.5585938,-59.105576
17915.6250000,-57.086155
17958.6914063,-46.320683
18001.7578125,-48.773975
18044.8242188,-47.26344
18087.8906250,-57.03083
18130.9570313,-51.61187
18174.0234375,-44.649994
18217.0898438,-48.137775
18260.1562500,-58.488556
18303.2226563,-50.91966
18346.2890625,-52.884357
18389.3554688,-49.536083
18432.4218750,-61.584236
18475.4882813,-50.670246
18518.5546875,-55.982445
18561.6210938,-49.15645
18604.6875000,-45.119778
18647.7539063,-50.312828
18690.8203125,-47.626713
18733.8867188,-58.84633
18776.9531250,-50.66048
18820.0195313,-58.8426
18863.0859375,-50.706947
18906.1523438,-47.07694
18949.2187500,-54.765156
18992.2851563,-66.939804
19035.3515625,-49.555138
19078.4179688,-50.031223
19121.4843750,-45.94949
19164.5507813,-49.2872
19207.6171875,-47.838345
19250.6835938,-54.108757
19293.7500000,-52.85248
19336.8164063,-62.00015
19379.8828125,-46.45355
19422.9492188,-50.461277
19466.0156250,-56.40014
19509.0820313,-67.583725
19552.1484375,-57.86521
19595.2148438,-61.140526
19638.2812500,-74.718056
19681.3476563,-48.16636
19724.4140625,-43.09216
19767.4804688,-51.963852
19810.5468750,-45.812786
19853.6132813,-50.054516
19896.6796875,-53.996384
19939.7460938,-60.327988
19982.8125000,-53.611492
20025.8789063,-53.318024
20068.9453125,-57.088814
20112.0117188,-47.45728
20155.0781250,-50.879833
20198.1445313,-51.76389
20241.2109375,-56.679977
20284.2773438,-51.924755
20327.3437500,-58.467525
20370.4101563,-54.190117
20413.4765625,-54.73987
20456.5429688,-59.589714
20499.6093750,-75.68262
20542.6757813,-61.281425
20585.7421875,-53.7251
20628.8085938,-59.272648
20671.8750000,-58.30222
20714.9414063,-56.51198
20758.0078125,-59.284485
20801.0742188,-57.191986
20844.1406250,-63.87594
20887.2070313,-64.16751
20930.2734375,-60.40203
20973.3398438,-60.78337
21016.4062500,-60.77245
21059.4726563,-60.371914
21102.5390625,-58.424694
21145.6054688,-63.173126
21188.6718750,-65.48838
21231.7382813,-64.19341
21274.8046875,-61.955673
21317.8710938,-68.264015
21360.9375000,-61.497246
21404.0039063,-63.849163
21447.0703125,-61.871803
21490.1367188,-64.44616
21533.2031250,-63.056976
21576.2695313,-64.55456
21619.3359375,-61.889595
21662.4023438,-63.815662
21705.4687500,-62.388897
21748.5351563,-63.264774
21791.6015625,-64.07391
21834.6679688,-63.591045
21877.7343750,-65.21968
21920.8007813,-64.63423
21963.8671875,-64.40249
22006.9335938,-63.131577


Time (s), Raw data
0.0000000,-81.000
0.0000227,-86.000
0.0000454,-2.000
0.0000680,56.000
0.0000907,102.000
0.0001134,51.000
0.0001361,-33.000
0.0001587,-82.000
0.0001814,-71.000
0.0002041,60.000
0.0002268,135.000
0.0002494,115.000
0.0002721,45.000
0.0002948,-52.000
0.0003175,-62.000
0.0003401,45.000
0.0003628,155.000
0.0003855,260.000
0.0004082,188.000
0.0004308,-33.000
0.0004535,-59.000
0.0004762,88.000
0.0004989,316.000
0.0005215,397.000
0.0005442,196.000
0.0005669,-133.000
0.0005896,-343.000
0.0006122,-295.000
0.0006349,-126.000
0.0006576,6.000
0.0006803,-11.000
0.0007029,-138.000
0.0007256,-233.000
0.0007483,-179.000
0.0007710,18.000
0.0007937,172.000
0.0008163,217.000
0.0008390,134.000
0.0008617,13.000
0.0008844,-35.000
0.0009070,-62.000
0.0009297,-95.000
0.0009524,-162.000
0.0009751,-141.000
0.0009977,-45.000
0.0010204,-14.000
0.0010431,-3.000
0.0010658,-31.000
0.0010884,-157.000
0.0011111,-281.000
0.0011338,-269.000
0.0011565,-136.000
0.0011791,58.000
0.0012018,132.000
0.0012245,-2.000
0.0012472,-189.000
0.0012698,-279.000
0.0012925,-161.000
0.0013152,80.000
0.0013379,191.000
0.0013605,103.000
0.0013832,-37.000
0.0014059,-116.000
0.0014286,-21.000
0.0014512,118.000
0.0014739,84.000
0.0014966,-88.000
0.0015193,-268.000
0.0015419,-292.000
0.0015646,-162.000
0.0015873,38.000
0.0016100,133.000
0.0016327,107.000
0.0016553,10.000
0.0016780,-25.000
0.0017007,35.000
0.0017234,111.000
0.0017460,192.000
0.0017687,195.000
0.0017914,161.000
0.0018141,64.000
0.0018367,-52.000
0.0018594,-98.000
0.0018821,-30.000
0.0019048,24.000
0.0019274,-34.000
0.0019501,-90.000
0.0019728,-155.000
0.0019955,-193.000
0.0020181,-130.000
0.0020408,-24.000
0.0020635,71.000
0.0020862,93.000
0.0021088,44.000
0.0021315,57.000
0.0021542,36.000
0.0021769,-52.000
0.0021995,-77.000
0.0022222,-56.000
0.0022449,58.000
0.0022676,137.000
0.0022903,160.000
0.0023129,13.000
0.0023356,-160.000
0.0023583,-250.000
0.0023810,-216.000
0.0024036,-46.000
0.0024263,34.000
0.0024490,114.000
0.0024717,86.000
0.0024943,9.000
0.0025170,-39.000
0.0025397,13.000
0.0025624,104.000
0.0025850,132.000
0.0026077,84.000
0.0026304,-31.000
0.0026531,-32.000
0.0026757,34.000
0.0026984,60.000
0.0027211,-17.000
0.0027438,-71.000
0.0027664,-80.000
0.0027891,29.000
0.0028118,195.000
0.0028345,228.000
0.0028571,119.000
0.0028798,-88.000
0.0029025,-160.000
0.0029252,-96.000
0.0029478,21.000
0.0029705,84.000
0.0029932,29.000
0.0030159,-106.000
0.0030386,-225.000
0.0030612,-245.000
0.0030839,-160.000
0.0031066,-35.000
0.0031293,-64.000
0.0031519,-67.000
0.0031746,-52.000
0.0031973,-54.000
0.0032200,-44.000
0.0032426,-47.000
0.0032653,12.000
0.0032880,23.000
0.0033107,6.000
0.0033333,-3.000
0.0033560,23.000
0.0033787,42.000
0.0034014,44.000
0.0034240,-8.000
0.0034467,-91.000
0.0034694,-103.000
0.0034921,-62.000
0.0035147,61.000
0.0035374,78.000
0.0035601,24.000
0.0035828,-44.000
0.0036054,-52.000
0.0036281,40.000
0.0036508,125.000
0.0036735,167.000
0.0036962,102.000
0.0037188,52.000
0.0037415,36.000
0.0037642,47.000
0.0037869,77.000
0.0038095,70.000
0.0038322,30.000
0.0038549,25.000
0.0038776,63.000
0.0039002,78.000
0.0039229,54.000
0.0039456,31.000
0.0039683,-7.000
0.0039909,-62.000
0.0040136,-81.000
0.0040363,-58.000
0.0040590,0.000
0.0040816,71.000
0.0041043,119.000
0.0041270,41.000
0.0041497,-40.000
0.0041723,-106.000
0.0041950,-111.000
0.0042177,-21.000
0.0042404,45.000
0.0042630,48.000
0.0042857,-75.000
0.0043084,-184.000
0.0043311,-218.000
0.0043538,-120.000
0.0043764,17.000
0.0043991,46.000
0.0044218,31.000
0.0044445,-53.000
0.0044671,-118.000
0.0044898,-136.000
0.0045125,-74.000
0.0045352,26.000
0.0045578,58.000
0.0045805,47.000
0.0046032,61.000
0.0046259,161.000
0.0046485,203.000
0.0046712,185.000
0.0046939,104.000
0.0047166,22.000
0.0047392,-19.000
0.0047619,-35.000
0.0047846,-13.000
0.0048073,-17.000
0.0048299,9.000
0.0048526,42.000
0.0048753,43.000
0.0048980,-12.000
0.0049206,-54.000
0.0049433,-64.000
0.0049660,-23.000
0.0049887,95.000
0.0050114,191.000
0.0050340,206.000
0.0050567,131.000
0.0050794,48.000
0.0051021,16.000
0.0051247,88.000
0.0051474,181.000
0.0051701,190.000
0.0051928,120.000
0.0052154,6.000
0.0052381,-64.000
0.0052608,-78.000
0.0052835,36.000
0.0053061,150.000
0.0053288,170.000
0.0053515,99.000
0.0053742,-3.000
0.0053968,-18.000
0.0054195,16.000
0.0054422,76.000
0.0054649,84.000
0.0054875,20.000
0.0055102,-35.000
0.0055329,44.000
0.0055556,112.000
0.0055782,64.000
0.0056009,-60.000
0.0056236,-138.000
0.0056463,-24.000
0.0056690,218.000
0.0056916,358.000
0.0057143,207.000
0.0057370,-21.000
0.0057597,-131.000
0.0057823,-31.000
0.0058050,129.000
0.0058277,166.000
0.0058504,76.000
0.0058730,-17.000
0.0058957,26.000
0.0059184,117.000
0.0059411,178.000
0.0059637,168.000
0.0059864,101.000
0.0060091,35.000
0.0060318,53.000
0.0060544,82.000
0.0060771,97.000
0.0060998,103.000
0.0061225,56.000
0.0061451,13.000
0.0061678,25.000
0.0061905,34.000
0.0062132,-15.000
0.0062358,-32.000
0.0062585,-31.000
0.0062812,-49.000
0.0063039,-2.000
0.0063266,54.000
0.0063492,77.000
0.0063719,27.000
0.0063946,-86.000
0.0064173,-108.000
0.0064399,-78.000
0.0064626,-28.000
0.0064853,-5.000
0.0065080,-32.000
0.0065306,-85.000
0.0065533,-109.000
0.0065760,-56.000
0.0065987,4.000
0.0066213,34.000
0.0066440,20.000
0.0066667,-31.000
0.0066894,-124.000
0.0067120,-157.000
0.0067347,-78.000
0.0067574,43.000
0.0067801,66.000
0.0068027,-55.000
0.0068254,-216.000
0.0068481,-305.000
0.0068708,-231.000
0.0068934,-62.000
0.0069161,52.000
0.0069388,-23.000
0.0069615,-200.000
0.0069841,-236.000
0.0070068,-89.000
0.0070295,60.000
0.0070522,109.000
0.0070749,10.000
0.0070975,-91.000
0.0071202,-35.000
0.0071429,77.000
0.0071656,75.000
0.0071882,-46.000
0.0072109,-166.000
0.0072336,-281.000
0.0072563,-247.000
0.0072789,-109.000
0.0073016,9.000
0.0073243,-12.000
0.0073470,-180.000
0.0073696,-313.000
0.0073923,-260.000
0.0074150,-26.000
0.0074377,160.000
0.0074603,209.000
0.0074830,66.000
0.0075057,-66.000
0.0075284,-50.000
0.0075510,7.000
0.0075737,-11.000
0.0075964,-88.000
0.0076191,-170.000
0.0076417,-228.000
0.0076644,-218.000
0.0076871,-124.000
0.0077098,-45.000
0.0077325,-86.000
0.0077551,-107.000
0.0077778,-143.000
0.0078005,-118.000
0.0078232,-17.000
0.0078458,109.000
0.0078685,137.000
0.0078912,19.000
0.0079139,-158.000
0.0079365,-295.000
0.0079592,-160.000
0.0079819,79.000
0.0080046,289.000
0.0080272,285.000
0.0080499,50.000
0.0080726,-68.000
0.0080953,-45.000
0.0081179,45.000
0.0081406,101.000
0.0081633,-18.000
0.0081860,-185.000
0.0082086,-211.000
0.0082313,-47.000
0.0082540,72.000
0.0082767,1.000
0.0082993,-145.000
0.0083220,-263.000
0.0083447,-188.000
0.0083674,-11.000
0.0083901,95.000
0.0084127,64.000
0.0084354,15.000
0.0084581,31.000
0.0084808,86.000
0.0085034,163.000
0.0085261,118.000
0.0085488,-35.000
0.0085715,-183.000
0.0085941,-211.000
0.0086168,-89.000
0.0086395,103.000
0.0086622,215.000
0.0086848,150.000
0.0087075,48.000
0.0087302,69.000
0.0087529,208.000
0.0087755,297.000
0.0087982,221.000
0.0088209,55.000
0.0088436,-55.000
0.0088662,-42.000
0.0088889,10.000
0.0089116,-20.000
0.0089343,-129.000
0.0089569,-168.000
0.0089796,-9.000
0.0090023,173.000
0.0090250,184.000
0.0090477,18.000
0.0090703,-218.000
0.0090930,-234.000
0.0091157,-65.000
0.0091384,111.000
0.0091610,194.000
0.0091837,161.000
0.0092064,99.000
0.0092291,77.000
0.0092517,68.000
0.0092744,60.000
0.0092971,35.000
0.0093198,-103.000
0.0093424,-149.000
0.0093651,-143.000
0.0093878,-86.000
0.0094105,34.000
0.0094331,128.000
0.0094558,173.000
0.0094785,63.000
0.0095012,-93.000
0.0095238,-210.000
0.0095465,-144.000
0.0095692,76.000
